Point in Time[s],Power Consumption[W]
3.885,123.0
18.065,64.0
24.643,52.0
38.103,59.0
44.64,56.0
58.132,70.0
68.611,96.0
78.157,61.0
84.758,55.0
98.173,89.0
104.639,70.0
118.198,72.0
123.86,92.0
138.213,61.0
144.649,54.0
158.251,54.0
164.646,56.0
178.271,74.0
188.639,99.0
198.295,74.0
204.644,72.0
218.316,93.0
224.647,77.0
238.345,90.0
243.913,105.0
258.364,59.0
264.755,54.0
278.451,55.0
284.758,55.0
298.482,56.0
308.624,96.0
318.51,55.0
328.624,56.0
338.531,57.0
348.624,54.0
358.541,57.0
363.853,92.0
378.578,54.0
388.625,54.0
398.609,52.0
408.624,54.0
418.628,56.0
428.626,101.0
438.63,62.0
448.625,72.0
458.629,52.0
468.626,62.0
478.621,53.0
484.117,137.0
498.622,59.0
508.627,51.0
518.62,52.0
524.648,52.0
538.62,49.0
548.62,94.0
558.621,51.0
564.656,52.0
578.63,70.0
584.651,88.0
598.624,68.0
603.857,87.0
618.633,54.0
624.648,52.0
638.625,91.0
644.647,52.0
658.62,61.0
668.629,92.0
678.623,67.0
684.76,55.0
698.621,70.0
704.769,57.0
718.623,52.0
723.903,105.0
738.633,74.0
744.757,54.0
758.621,53.0
764.662,51.0
778.629,52.0
788.629,92.0
798.623,69.0
808.624,51.0
818.631,64.0
828.625,53.0
838.623,52.0
843.849,108.0
858.626,64.0
864.765,58.0
878.624,70.0
888.628,52.0
898.631,52.0
908.631,103.0
918.632,68.0
928.629,67.0
938.624,52.0
944.648,69.0
958.633,52.0
963.849,91.0
978.64,51.0
984.771,52.0
998.624,52.0
1004.649,53.0
1018.625,52.0
1028.623,93.0
1038.626,52.0
1044.758,56.0
1058.626,52.0
1064.655,69.0
1078.634,52.0
1083.896,114.0
1098.636,59.0
1104.651,55.0
1113.802,54.0
1124.651,55.0
1138.625,54.0
1148.624,95.0
1158.627,53.0
1164.651,59.0
1178.626,56.0
1188.728,57.0
1198.627,54.0
1203.904,90.0
1218.628,89.0
1224.763,65.0
1238.633,69.0
1244.762,51.0
1258.625,68.0
1268.625,117.0
1274.68,70.0
1284.782,54.0
1294.666,52.0
1308.633,52.0
1318.629,54.0
1324.079,120.0
1338.639,53.0
1348.638,52.0
1358.637,88.0
1368.634,90.0
1374.804,52.0
1388.628,116.0
1394.772,51.0
1408.635,51.0
1414.767,54.0
1428.635,52.0
1434.769,53.0
1443.846,91.0
1454.818,54.0
1464.783,52.0
1478.635,59.0
1484.775,56.0
1494.772,52.0
1508.627,92.0
1518.637,90.0
1524.651,88.0
1534.652,53.0
1544.655,52.0
1558.636,54.0
1563.889,95.0
1574.826,51.0
1588.652,49.0
1594.775,92.0
1604.658,52.0
1614.658,54.0
1628.629,95.0
1634.655,89.0
1644.658,52.0
1654.656,51.0
1664.735,52.0
1674.776,69.0
1683.924,92.0
1698.642,52.0
1704.662,50.0
1714.661,55.0
1724.768,52.0
1734.66,52.0
1743.68,92.0
1754.665,52.0
1764.659,51.0
1774.784,53.0
1784.774,52.0
1798.645,54.0
1804.135,117.0
1814.834,52.0
1825.016,52.0
1834.661,52.0
1844.661,52.0
1854.663,61.0
1868.643,93.0
1874.664,53.0
1888.638,52.0
1894.672,70.0
1904.773,69.0
1918.74,89.0
1923.865,102.0
1938.643,67.0
1944.663,69.0
1954.774,66.0
1968.643,88.0
1978.642,93.0
1988.634,99.0
1994.798,52.0
2004.662,54.0
2018.643,105.0
2028.651,56.0
2034.773,102.0
2043.859,126.0
2058.648,111.0
2068.641,106.0
2074.777,101.0
2084.786,103.0
2094.787,100.0
2108.645,130.0
2118.644,104.0
2128.642,102.0
2138.645,98.0
2148.645,100.0
2154.665,98.0
2164.074,109.0
2173.885,57.0
2184.786,52.0
2198.648,91.0
2208.665,57.0
2218.645,55.0
2228.637,92.0
2238.645,56.0
2244.662,51.0
2254.661,69.0
2264.674,68.0
2278.645,61.0
2283.891,90.0
2298.648,62.0
2304.664,62.0
2314.661,61.0
2324.664,52.0
2334.772,51.0
2348.639,93.0
2354.666,70.0
2364.664,54.0
2378.647,53.0
2384.793,64.0
2394.669,52.0
2403.839,108.0
2418.657,51.0
2429.073,54.0
2434.772,51.0
2444.666,57.0
2454.666,52.0
2468.66,124.0
2474.719,108.0
2484.83,52.0
2498.646,93.0
2508.647,53.0
2518.649,52.0
2523.841,140.0
2534.843,72.0
2544.668,60.0
2554.777,88.0
2564.777,57.0
2574.673,61.0
2588.652,94.0
2594.784,60.0
2604.667,52.0
2618.647,52.0
2624.781,69.0
2638.649,57.0
2643.83,95.0
2654.724,55.0
2668.649,51.0
2674.781,52.0
2688.654,54.0
2698.65,59.0
2708.653,95.0
2718.65,70.0
2728.651,59.0
2738.653,52.0
2748.725,52.0
2758.677,50.0
2763.857,96.0
2775.197,57.0
2784.785,52.0
2798.663,51.0
2808.654,70.0
2818.653,52.0
2828.655,116.0
2838.654,51.0
2848.654,51.0
2858.654,69.0
2864.798,52.0
2874.677,90.0
2884.052,89.0
2898.66,88.0
2904.683,69.0
2918.654,93.0
2928.654,91.0
2938.659,57.0
2948.647,95.0
2954.68,72.0
2968.655,51.0
2978.655,89.0
2984.787,52.0
2994.679,59.0
3003.889,96.0
3014.739,57.0
3028.658,52.0
3038.659,71.0
3048.658,55.0
3058.658,52.0
3068.66,97.0
3078.658,90.0
3084.799,56.0
3094.797,58.0
3108.659,51.0
3114.688,53.0
3123.845,103.0
3134.845,52.0
3148.66,51.0
3158.659,68.0
3168.66,69.0
3174.702,54.0
3188.664,117.0
3194.8,60.0
3204.687,55.0
3214.682,51.0
3224.679,51.0
3238.66,50.0
3243.89,108.0
3254.848,89.0
3268.661,52.0
3274.682,54.0
3284.682,60.0
3294.792,51.0
3308.687,93.0
3314.682,90.0
3324.683,57.0
3334.682,53.0
3344.682,54.0
3358.666,92.0
3364.026,118.0
3378.666,90.0
3384.678,52.0
3394.799,90.0
3404.818,64.0
3414.683,58.0
3428.656,93.0
3434.686,57.0
3444.793,52.0
3458.665,88.0
3464.793,69.0
3474.686,52.0
3483.885,96.0
3498.676,91.0
3504.805,88.0
3514.683,56.0
3524.683,50.0
3534.683,90.0
3548.672,94.0
3554.798,92.0
3563.842,55.0
3574.799,54.0
3588.667,55.0
3594.699,52.0
3603.864,101.0
3618.673,69.0
3628.731,66.0
3638.667,72.0
3648.667,72.0
3658.667,90.0
3668.67,97.0
3674.79,52.0
3684.797,70.0
3694.802,52.0
3704.702,54.0
3718.668,70.0
3723.921,95.0
3734.741,78.0
3748.668,56.0
3758.668,73.0
3768.669,63.0
3778.667,52.0
3788.67,93.0
3794.805,69.0
3804.685,152.0
3814.689,122.0
3828.667,144.0
3838.67,108.0
3849.096,137.0
3854.754,119.0
3868.667,116.0
3876.497,117.0
3888.669,117.0
3898.687,117.0
3908.664,135.0
3918.695,117.0
3924.69,119.0
3934.706,114.0
3944.69,116.0
3954.71,107.0
3963.858,130.0
3978.707,102.0
3984.802,101.0
3994.82,102.0
4004.803,102.0
4014.822,105.0
4028.664,132.0
4034.8,105.0
4044.693,104.0
4054.726,111.0
4064.687,108.0
4074.925,109.0
4083.874,121.0
4098.711,113.0
4104.693,106.0
4115.174,105.0
4123.844,127.0
4135.28,103.0
4143.865,138.0
4155.397,113.0
4164.698,115.0
4174.813,116.0
4188.694,59.0
4194.818,75.0
4204.832,118.0
4214.762,61.0
4224.81,62.0
4238.673,55.0
4245.505,53.0
4254.691,51.0
4268.681,119.0
4274.693,52.0
4288.686,52.0
4298.674,52.0
4305.515,56.0
4314.697,60.0
4324.709,96.0
4338.677,56.0
4345.511,53.0
4354.808,61.0
4364.82,51.0
4374.817,54.0
4384.835,96.0
4394.697,52.0
4408.694,55.0
4418.676,51.0
4425.513,55.0
4438.676,55.0
4445.508,103.0
4454.749,54.0
4468.698,59.0
4478.676,53.0
4485.57,52.0
4498.676,69.0
4505.511,93.0
4518.681,52.0
4525.53,69.0
4534.697,57.0
4544.706,54.0
4558.68,59.0
4565.513,74.0
4578.682,72.0
4585.516,51.0
4594.813,54.0
4604.823,57.0
4618.676,70.0
4625.511,92.0
4638.678,69.0
4645.519,67.0
4654.802,52.0
4664.858,74.0
4674.7,69.0
4684.711,136.0
4698.682,53.0
4708.695,66.0
4714.808,52.0
4724.818,94.0
4734.697,52.0
4748.688,93.0
4754.696,54.0
4764.706,52.0
4774.696,51.0
4784.76,50.0
4793.856,51.0
4804.594,95.0
4818.685,51.0
4825.511,52.0
4834.698,70.0
4848.695,52.0
4858.679,52.0
4865.525,94.0
4878.68,72.0
4888.73,53.0
4898.68,54.0
4908.695,54.0
4914.705,78.0
4924.83,103.0
4938.69,64.0
4945.572,57.0
4955.166,57.0
4969.116,53.0
4974.821,51.0
4988.73,92.0
4994.859,54.0
5005.104,55.0
5018.681,51.0
5028.697,51.0
5034.704,67.0
5045.144,96.0
5058.681,69.0
5068.696,52.0
5078.686,65.0
5085.512,51.0
5094.818,52.0
5105.229,116.0
5114.699,61.0
5125.238,70.0
5134.699,58.0
5145.257,98.0
5158.685,56.0
5165.517,152.0
5178.684,96.0
5185.518,61.0
5194.725,52.0
5205.335,70.0
5214.702,57.0
5225.363,96.0
5234.7,54.0
5245.377,65.0
5254.699,52.0
5265.393,53.0
5274.814,56.0
5285.413,93.0
5294.884,53.0
5308.7,52.0
5318.686,51.0
5325.516,56.0
5334.707,51.0
5345.505,94.0
5354.709,56.0
5365.514,91.0
5378.952,61.0
5388.968,52.0
5394.707,51.0
5405.554,101.0
5414.756,64.0
5425.576,52.0
5434.818,52.0
5445.611,57.0
5458.685,60.0
5468.7,93.0
5478.69,54.0
5488.7,67.0
5494.822,53.0
5508.711,56.0
5514.708,59.0
5525.689,103.0
5534.876,52.0
5545.712,73.0
5554.71,61.0
5568.702,55.0
5578.686,59.0
5585.785,131.0
5598.709,56.0
5605.803,70.0
5614.884,56.0
5625.837,63.0
5638.688,57.0
5645.842,91.0
5658.691,54.0
5665.872,59.0
5674.821,54.0
5685.901,54.0
5698.686,56.0
5705.931,97.0
5718.688,56.0
5725.951,69.0
5738.687,56.0
5745.959,54.0
5758.687,52.0
5765.979,92.0
5778.691,54.0
5786.011,54.0
5798.689,62.0
5806.039,51.0
5814.707,52.0
5826.061,92.0
5834.709,57.0
5846.077,53.0
5854.711,90.0
5866.097,62.0
5874.731,89.0
5886.115,102.0
5895.118,89.0
5906.136,56.0
5914.708,55.0
5926.177,63.0
5938.688,56.0
5946.206,109.0
5954.711,66.0
5966.232,74.0
5978.691,56.0
5986.254,82.0
5994.925,93.0
6009.372,111.0
6018.824,108.0
6026.297,55.0
6034.988,79.0
6046.357,59.0
6054.77,56.0
6069.173,75.0
6074.868,53.0
6086.824,52.0
6098.691,70.0
6106.846,62.0
6114.794,59.0
6130.525,71.0
6135.539,51.0
6147.132,51.0
6154.784,52.0
6167.182,54.0
6174.979,58.0
6187.192,93.0
6198.731,54.0
6207.322,51.0
6214.718,59.0
6227.366,52.0
6234.731,52.0
6247.432,95.0
6258.698,101.0
6267.664,67.0
6278.881,57.0
6287.701,55.0
6298.692,57.0
6307.79,61.0
6314.712,59.0
6327.825,69.0
6338.692,59.0
6348.424,56.0
6358.693,58.0
6368.471,95.0
6378.698,55.0
6388.687,52.0
6394.734,70.0
6408.717,52.0
6414.717,52.0
6428.692,92.0
6434.716,69.0
6448.688,61.0
6454.87,90.0
6463.869,54.0
6474.73,53.0
6488.77,92.0
6494.885,49.0
6509.034,53.0
6514.832,52.0
6528.69,53.0
6533.87,52.0
6548.686,97.0
6553.87,71.0
6568.689,52.0
6578.693,57.0
6584.91,54.0
6598.696,69.0
6603.879,101.0
6614.774,93.0
6624.717,57.0
6638.694,52.0
6648.762,97.0
6658.693,55.0
6668.696,95.0
6678.695,69.0
6688.693,56.0
6696.23,91.0
6704.72,60.0
6718.697,60.0
6723.988,95.0
6734.776,55.0
6748.695,69.0
6758.695,90.0
6764.714,88.0
6774.838,90.0
6788.688,116.0
6798.699,73.0
6808.699,63.0
6814.825,72.0
6824.834,121.0
6834.839,52.0
6843.903,122.0
6858.708,89.0
6864.72,54.0
6873.871,66.0
6884.837,60.0
6898.696,58.0
6908.691,96.0
6915.485,52.0
6924.715,55.0
6934.716,59.0
6944.84,59.0
6954.843,52.0
6963.892,106.0
6974.887,53.0
6984.725,54.0
6998.702,51.0
7008.701,52.0
7018.696,51.0
7028.7,96.0
7034.829,53.0
7044.719,57.0
7058.696,90.0
7064.832,51.0
7074.725,52.0
7083.884,124.0
7094.904,71.0
7108.701,56.0
7114.847,73.0
7124.833,58.0
7138.743,106.0
7148.702,94.0
7154.833,71.0
7164.726,58.0
7174.725,57.0
7184.855,55.0
7194.727,53.0
7203.967,92.0
7218.701,74.0
7224.837,53.0
7234.723,55.0
7244.723,56.0
7254.723,54.0
7268.702,94.0
7278.702,52.0
7284.847,57.0
7298.702,61.0
7304.841,59.0
7314.752,51.0
7324.097,105.0
7334.777,56.0
7348.705,56.0
7358.701,52.0
7368.701,51.0
7378.702,52.0
7388.693,128.0
7394.839,52.0
7408.701,77.0
7414.853,86.0
7428.704,58.0
7434.858,94.0
7443.911,148.0
7458.704,113.0
7468.704,91.0
7474.841,62.0
7484.726,59.0
7498.703,62.0
7508.697,97.0
7518.703,56.0
7524.726,54.0
7534.726,53.0
7544.724,51.0
7558.702,71.0
7563.906,93.0
7574.783,52.0
7588.709,54.0
7598.706,59.0
7604.842,54.0
7614.726,54.0
7628.697,97.0
7638.705,64.0
7644.729,54.0
7658.71,51.0
7664.837,52.0
7674.729,52.0
7683.89,93.0
7698.71,51.0
7703.882,53.0
7714.742,61.0
7723.892,54.0
7734.76,51.0
7748.713,93.0
7754.732,54.0
7764.84,53.0
7778.706,87.0
7784.892,51.0
7794.766,68.0
7803.908,144.0
7814.932,59.0
7824.843,56.0
7838.709,64.0
7848.708,56.0
7858.71,57.0
7868.713,105.0
7878.711,56.0
7888.71,57.0
7894.858,55.0
7904.859,61.0
7918.714,91.0
7923.913,104.0
7938.72,94.0
7948.71,62.0
7954.726,56.0
7964.726,106.0
7978.708,129.0
7988.703,131.0
7994.894,103.0
8004.847,106.0
8014.729,104.0
8023.887,103.0
8038.711,100.0
8043.951,93.0
8054.789,53.0
8064.728,88.0
8074.731,51.0
8084.741,51.0
8098.711,52.0
8108.707,139.0
8114.853,54.0
8124.85,51.0
8133.885,65.0
8144.732,57.0
8158.72,70.0
8164.133,96.0
8174.905,92.0
8184.734,56.0
8198.715,94.0
8204.731,54.0
8214.734,67.0
8228.709,95.0
8234.734,51.0
8244.843,54.0
8254.855,53.0
8264.843,54.0
8274.854,63.0
8283.863,95.0
8298.752,91.0
8308.716,70.0
8315.561,51.0
8324.733,52.0
8334.846,52.0
8348.722,116.0
8353.889,61.0
8364.75,52.0
8374.85,64.0
8388.718,52.0
8398.743,71.0
8403.901,96.0
8413.943,51.0
8428.717,87.0
8438.732,51.0
8448.717,52.0
8458.746,56.0
8468.71,130.0
8478.736,93.0
8488.717,64.0
8495.559,79.0
8508.719,61.0
8515.56,56.0
8523.881,100.0
8534.79,60.0
8548.716,57.0
8558.732,62.0
8564.734,53.0
8578.739,55.0
8588.712,98.0
8598.74,50.0
8608.717,54.0
8615.58,62.0
8624.734,69.0
8634.762,54.0
8644.079,94.0
8654.805,81.0
8664.737,72.0
8674.746,93.0
8684.736,70.0
8694.845,69.0
8708.705,119.0
8714.738,70.0
8724.735,72.0
8734.746,70.0
8744.74,53.0
8758.741,72.0
8763.889,137.0
8778.77,99.0
8784.74,52.0
8794.849,72.0
8804.74,93.0
8818.742,56.0
8828.723,98.0
8834.74,72.0
8844.743,60.0
8854.756,90.0
8868.721,55.0
8875.57,50.0
8883.904,92.0
8894.912,51.0
8908.753,67.0
8915.571,51.0
8924.742,52.0
8938.745,53.0
8948.723,99.0
8958.737,51.0
8968.72,53.0
8978.736,52.0
8984.736,52.0
8994.765,52.0
9003.929,106.0
9014.636,54.0
9028.723,52.0
9035.57,57.0
9048.723,67.0
9055.573,52.0
9068.727,98.0
9078.745,73.0
9088.723,51.0
9098.738,69.0
9108.724,57.0
9115.57,70.0
9123.968,109.0
9134.799,60.0
9148.726,54.0
9158.741,54.0
9168.726,59.0
9175.573,67.0
9188.721,98.0
9194.863,69.0
9208.725,55.0
9215.588,90.0
9224.742,90.0
9238.75,52.0
9243.926,102.0
9258.759,57.0
9268.726,51.0
9275.578,91.0
9288.73,60.0
9298.757,60.0
9308.721,129.0
9314.985,59.0
9328.728,69.0
9338.744,54.0
9348.732,69.0
9358.775,71.0
9364.055,94.0
9375.045,77.0
9383.9,83.0
9398.743,66.0
9404.878,61.0
9415.103,57.0
9428.736,96.0
9435.124,52.0
9444.758,55.0
9455.145,69.0
9464.751,57.0
9475.164,90.0
9483.887,94.0
9495.185,71.0
9508.729,74.0
9515.586,69.0
9524.862,53.0
9535.246,54.0
9548.733,97.0
9555.262,67.0
9564.877,72.0
9578.749,52.0
9588.731,51.0
9598.756,56.0
9603.986,97.0
9615.323,51.0
9624.752,53.0
9638.743,51.0
9648.732,52.0
9658.754,52.0
9668.731,116.0
9675.402,70.0
9684.893,52.0
9698.76,93.0
9708.732,88.0
9715.585,56.0
9723.977,145.0
9735.461,67.0
9748.731,60.0
9755.583,56.0
9768.732,56.0
9778.757,62.0
9788.723,99.0
9795.539,54.0
9804.752,54.0
9818.744,54.0
9828.73,53.0
9838.754,69.0
9843.881,108.0
9858.76,51.0
9864.76,51.0
9875.634,51.0
9884.857,51.0
9895.655,51.0
9908.734,101.0
9915.674,52.0
9928.733,51.0
9935.692,53.0
9948.731,58.0
9958.747,90.0
9963.92,93.0
9978.752,51.0
9984.859,52.0
9995.768,59.0
10008.734,59.0
10015.792,70.0
10028.734,114.0
10035.819,69.0
10048.733,67.0
10055.832,69.0
10068.732,68.0
10075.854,100.0
10084.071,103.0
10095.874,92.0
10108.743,52.0
10115.964,69.0
10128.734,59.0
10135.985,57.0
10148.727,98.0
10156.003,73.0
10168.736,56.0
10176.027,53.0
10184.75,57.0
10196.036,53.0
10203.991,98.0
10216.054,53.0
10228.735,61.0
10236.101,52.0
10243.903,53.0
10256.112,52.0
10268.729,96.0
10276.142,51.0
10288.735,91.0
10296.162,51.0
10308.734,52.0
10316.172,51.0
10323.905,103.0
10336.192,52.0
10348.735,52.0
10356.23,69.0
10364.754,53.0
10376.25,51.0
10388.729,95.0
10396.27,54.0
10408.738,54.0
10416.292,60.0
10424.755,61.0
10436.32,69.0
10443.898,97.0
10456.34,71.0
10464.754,69.0
10476.387,49.0
10483.911,51.0
10496.406,51.0
10508.723,124.0
10516.434,52.0
10524.873,52.0
10536.446,64.0
10544.865,91.0
10556.464,54.0
10563.942,112.0
10576.493,53.0
10584.871,88.0
10596.531,117.0
10603.788,52.0
10616.542,54.0
10628.731,122.0
10636.564,51.0
10644.754,90.0
10656.585,65.0
10664.754,67.0
10676.605,51.0
10683.91,124.0
10696.624,92.0
10704.787,52.0
10716.663,74.0
10724.768,61.0
10736.686,52.0
10748.734,93.0
10756.709,90.0
10764.754,53.0
10776.729,70.0
10783.857,53.0
10796.748,96.0
10803.891,98.0
10816.771,58.0
10823.912,57.0
10836.806,69.0
10843.916,54.0
10856.827,56.0
10868.733,95.0
10876.849,92.0
10883.943,53.0
10896.869,52.0
10904.775,61.0
10916.891,51.0
10923.889,97.0
10936.91,51.0
10944.759,52.0
10956.947,52.0
10964.758,48.0
10976.97,50.0
10988.734,96.0
10996.99,54.0
11004.757,51.0
11017.011,51.0
11024.808,51.0
11037.03,52.0
11044.047,95.0
11057.05,51.0
11064.767,53.0
11077.087,52.0
11084.761,55.0
11097.107,55.0
11108.72,119.0
11117.128,69.0
11124.093,54.0
11137.149,90.0
11144.758,53.0
11157.169,52.0
11163.97,101.0
11177.191,70.0
11184.765,52.0
11197.24,53.0
11204.766,56.0
11217.261,51.0
11228.735,116.0
11237.283,69.0
11244.764,54.0
11257.304,50.0
11263.911,86.0
11277.322,56.0
11283.893,103.0
11297.342,69.0
11304.762,54.0
11317.38,52.0
11324.763,51.0
11337.4,69.0
11348.738,119.0
11357.419,50.0
11364.248,52.0
11377.439,51.0
11384.775,77.0
11397.459,71.0
11403.928,141.0
11417.481,100.0
11424.773,64.0
11437.521,51.0
11444.764,51.0
11457.541,55.0
11468.741,100.0
11477.56,53.0
11484.765,54.0
11497.582,51.0
11504.762,52.0
11517.601,62.0
11523.949,94.0
11537.62,79.0
11544.764,60.0
11557.659,72.0
11564.4,59.0
11577.682,55.0
11588.743,96.0
11597.701,96.0
11604.769,51.0
11617.728,51.0
11624.761,51.0
11637.751,70.0
11643.93,94.0
11657.77,69.0
11664.768,52.0
11677.811,69.0
11684.762,53.0
11697.832,52.0
11708.74,92.0
11717.852,71.0
11724.767,54.0
11737.875,52.0
11744.414,60.0
11757.892,61.0
11763.903,117.0
11777.911,71.0
11784.766,52.0
11797.949,52.0
11804.764,52.0
11817.97,52.0
11828.748,112.0
11837.99,52.0
11844.433,69.0
11858.011,51.0
11864.456,52.0
11878.03,51.0
11883.929,116.0
11898.05,72.0
11904.771,51.0
11918.091,53.0
11924.459,67.0
11938.11,68.0
11948.744,117.0
11958.131,51.0
11964.767,52.0
11978.154,51.0
11984.466,51.0
11998.173,52.0
12004.007,93.0
12018.193,54.0
12024.784,54.0
12038.229,57.0
12044.766,52.0
12058.25,52.0
12068.745,144.0
12078.272,68.0
12084.491,52.0
12098.293,52.0
12104.767,49.0
12118.312,52.0
12123.98,123.0
12138.336,94.0
12144.779,51.0
12158.372,54.0
12164.779,60.0
12178.394,52.0
12188.757,96.0
12198.421,56.0
12204.788,52.0
12218.433,59.0
12224.781,53.0
12238.452,92.0
12243.936,131.0
12258.475,70.0
12264.768,77.0
12278.51,59.0
12284.52,61.0
12298.53,62.0
12308.723,98.0
12318.556,91.0
12324.521,92.0
12338.573,61.0
12344.766,58.0
12358.593,90.0
12363.915,100.0
12378.614,72.0
12384.765,70.0
12398.668,58.0
12404.568,62.0
12418.673,51.0
12428.751,111.0
12438.694,69.0
12444.765,52.0
12458.716,54.0
12464.766,57.0
12478.735,52.0
12483.961,103.0
12498.761,54.0
12504.784,50.0
12518.75,66.0
12524.777,90.0
12538.752,62.0
12548.752,97.0
12558.753,94.0
12564.771,52.0
12578.753,52.0
12584.776,55.0
12598.755,90.0
12603.977,137.0
12618.802,75.0
12624.779,60.0
12638.759,62.0
12644.62,59.0
12658.764,60.0
12668.753,94.0
12678.754,70.0
12684.617,54.0
12698.754,90.0
12704.774,56.0
12718.754,54.0
12723.912,95.0
12738.761,54.0
12744.624,57.0
12758.753,60.0
12764.775,55.0
12778.753,90.0
12788.754,114.0
12798.754,53.0
12804.773,61.0
12818.753,72.0
12824.776,66.0
12838.756,50.0
12843.921,110.0
12858.764,54.0
12864.778,52.0
12878.759,90.0
12884.793,57.0
12898.756,71.0
12908.719,97.0
12918.756,89.0
12924.796,76.0
12938.765,56.0
12944.779,59.0
12958.757,93.0
12963.945,99.0
12978.775,57.0
12984.778,54.0
12998.759,71.0
13004.78,57.0
13018.76,55.0
13028.756,96.0
13038.763,52.0
13044.785,51.0
13058.758,50.0
13064.698,51.0
13078.761,51.0
13083.974,92.0
13098.765,90.0
13104.779,55.0
13118.758,51.0
13124.7,51.0
13138.758,52.0
13148.758,95.0
13158.758,69.0
13164.706,51.0
13178.758,56.0
13184.776,52.0
13198.76,52.0
13203.977,110.0
13218.767,70.0
13224.797,51.0
13234.728,90.0
13244.783,52.0
13254.729,51.0
13268.759,117.0
13274.742,61.0
13284.797,54.0
13294.782,54.0
13304.781,54.0
13314.786,69.0
13323.966,94.0
13334.023,95.0
13344.782,61.0
13354.748,56.0
13364.785,61.0
13374.782,58.0
13388.76,94.0
13394.782,64.0
13404.844,54.0
13414.781,70.0
13424.883,54.0
13434.842,50.0
13443.973,93.0
13454.778,56.0
13468.766,52.0
13474.783,52.0
13484.886,51.0
13498.771,69.0
13508.732,119.0
13518.778,64.0
13524.797,89.0
13538.772,51.0
13548.768,53.0
13554.794,50.0
13563.988,88.0
13578.774,70.0
13588.768,53.0
13598.771,51.0
13608.767,53.0
13614.903,58.0
13628.759,121.0
13638.775,51.0
13648.768,52.0
13654.892,59.0
13668.767,51.0
13678.78,53.0
13683.982,105.0
13694.847,54.0
13704.908,55.0
13718.773,53.0
13724.9,51.0
13733.949,51.0
13748.764,118.0
13754.786,54.0
13764.788,55.0
13774.899,53.0
13784.791,90.0
13794.909,52.0
13803.986,109.0
13814.956,92.0
13824.942,51.0
13838.777,52.0
13848.772,54.0
13854.8,62.0
13868.768,100.0
13878.781,51.0
13883.963,91.0
13898.774,69.0
13904.908,56.0
13914.901,77.0
13923.956,93.0
13938.782,56.0
13944.79,59.0
13954.807,64.0
13964.902,62.0
13974.905,59.0
13988.766,98.0
13994.906,62.0
14004.794,60.0
14018.773,59.0
14023.953,60.0
14038.774,61.0
